 #      T [K]      F [kJ/mol]    S [J/K/mol]  C_v [J/K/mol]     E [kJ/mol]
       0.000      64.8415366      0.0000000      0.0000000     64.8415366
      10.000      64.8399238      0.4914383      1.0052849     64.8448381
      20.000      64.8280990      2.0820353      4.5504317     64.8697397
      30.000      64.7927109      5.3558457     13.2860957     64.9533863
      40.000      64.7125177     11.1464642     28.8026047     65.1583763
      50.000      64.5602932     19.7686653     50.0829956     65.5487265
      60.000      64.3081527     31.0805095     75.2422264     66.1729833
      70.000      63.9309957     44.6951771    102.2376652     67.0596581
      80.000      63.4082114     60.1211412    129.3011696     68.2179027
      90.000      62.7242002     76.8608272    155.1804967     69.6416747
     100.000      61.8681061     94.4698142    179.1458579     71.3150875
     110.000      60.8331373    112.5814960    200.8730475     73.2171019
     120.000      59.6157636    130.9093353    220.3059071     75.3248839
     130.000      58.2149543    149.2380186    237.5442806     77.6158967
     140.000      56.6315279    167.4108458    252.7666242     80.0690463
     150.000      54.8676296    185.3171688    266.1817229     82.6652049
     160.000      52.9263275    202.8814693    278.0009344     85.3873625
     170.000      50.8113066    220.0544944    288.4236152     88.2205707
     180.000      48.5266430    236.8063414    297.6304904     91.1517845
     190.000      46.0766376    253.1211886    305.7815587     94.1696634
     200.000      43.4656957    268.9933404    313.0164315     97.2643638
     210.000      40.6982420    284.4242878    319.4558650    100.4273424
     220.000      37.7786593    299.4205378    325.2037757    103.6511776
     230.000      34.7112474    313.9920183    330.3493565    106.9294116
     240.000      31.5001944    328.1509115    334.9690923    110.2564132
     250.000      28.1495592    341.9108044    339.1285883    113.6272603
     260.000      24.6632604    355.2860732    342.8841785    117.0376395
     270.000      21.0450708    368.2914408    346.2843167    120.4837598
     280.000      17.2986154    380.9416620    349.3707640    123.9622808
     290.000      13.4273728    393.2513016    352.1795975    127.4702502
     300.000       9.4346772    405.2345825    354.7420620    131.0050520
     310.000       5.3237230    416.9052841    357.0852879    134.5643611
     320.000       1.0975691    428.2766776    359.2328962    138.1461060
     330.000      -3.2408554    439.3614888    361.2055078    141.7484360
     340.000      -7.6887460    450.1718800    363.0211734    145.3696932
     350.000     -12.2434169    460.7194463    364.6957358    149.0083893
     360.000     -16.9022956    471.0152220    366.2431368    152.6631843
     370.000     -21.6629171    481.0696929    367.6756767    156.3328693
     380.000     -26.5229184    490.8928151    369.0042355    160.0163513
     390.000     -31.4800338    500.4940345    370.2384602    163.7126397
     400.000     -36.5320893    509.8823102    371.3869254    167.4208348
     410.000     -41.6769985    519.0661376    372.4572704    171.1401179
     420.000     -46.9127575    528.0535716    373.4563163    174.8697426
     430.000     -52.2374408    536.8522507    374.3901675    178.6090270
     440.000     -57.6491975    545.4694192    375.2642984    182.3573469
     450.000     -63.1462471    553.9119498    376.0836287    186.1141303
     460.000     -68.7268761    562.1863648    376.8525887    189.8788517
     470.000     -74.3894347    570.2988559    377.5751753    193.6510276
     480.000     -80.1323332    578.2553038    378.2550018    197.4302127
     490.000     -85.9540393    586.0612965    378.8953401    201.2159960
     500.000     -91.8530753    593.7221461    379.4991587    205.0079978
     510.000     -97.8280153    601.2429054    380.0691552    208.8058665
     520.000    -103.8774825    608.6283824    380.6077851    212.6092763
     530.000    -110.0001473    615.8831554    381.1172872    216.4179251
     540.000    -116.1947245    623.0115858    381.5997061    220.2315318
     550.000    -122.4599717    630.0178307    382.0569115    224.0498352
     560.000    -128.7946871    636.9058550    382.4906160    227.8725917
     570.000    -135.1977074    643.6794417    382.9023903    231.6995744
     580.000    -141.6679065    650.3422030    383.2936773    235.5305713
     590.000    -148.2041935    656.8975892    383.6658038    239.3653841
     600.000    -154.8055114    663.3488982    384.0199919    243.2038276
     610.000    -161.4708351    669.6992836    384.3573685    247.0457279
     620.000    -168.1991707    675.9517630    384.6789737    250.8909224
     630.000    -174.9895536    682.1092249    384.9857693    254.7392580
     640.000    -181.8410477    688.1744360    385.2786452    258.5905914
     650.000    -188.7527437    694.1500477    385.5584257    262.4447873
     660.000    -195.7237585    700.0386019    385.8258757    266.3017188
     670.000    -202.7532337    705.8425370    386.0817050    270.1612661
     680.000    -209.8403350    711.5641931    386.3265737    274.0233164
     690.000    -216.9842508    717.2058172    386.5610956    277.8877631
     700.000    -224.1841917    722.7695677    386.7858427    281.7545057
     710.000    -231.4393895    728.2575192    387.0013479    285.6234491
     720.000    -238.7490961    733.6716661    387.2081086    289.4945035
     730.000    -246.1125832    739.0139273    387.4065894    293.3675837
     740.000    -253.5291412    744.2861491    387.5972245    297.2426091
     750.000    -260.9980787    749.4901094    387.7804201    301.1195034
     760.000    -268.5187216    754.6275205    387.9565568    304.9981940
     770.000    -276.0904127    759.7000324    388.1259911    308.8786122
     780.000    -283.7125112    764.7092356    388.2890572    312.7606926
     790.000    -291.3843915    769.6566642    388.4460692    316.6443732
     800.000    -299.1054435    774.5437979    388.5973218    320.5295948
     810.000    -306.8750713    779.3720650    388.7430922    324.4163013
     820.000    -314.6926932    784.1428444    388.8836413    328.3044392
     830.000    -322.5577410    788.8574681    389.0192146    332.1939576
     840.000    -330.4696597    793.5172231    389.1500433    336.0848077
     850.000    -338.4279067    798.1233530    389.2763455    339.9769433
     860.000    -346.4319520    802.6770607    389.3983269    343.8703202
     870.000    -354.4812771    807.1795094    389.5161818    347.7648961
     880.000    -362.5753751    811.6318247    389.6300936    351.6606307
     890.000    -370.7137501    816.0350961    389.7402356    355.5574854
     900.000    -378.8959170    820.3903783    389.8467720    359.4554234
     910.000    -387.1214011    824.6986928    389.9498579    363.3544094
     920.000    -395.3897376    828.9610295    390.0496402    367.2544096
     930.000    -403.7004716    833.1783476    390.1462583    371.1553916
     940.000    -412.0531576    837.3515768    390.2398441    375.0573246
     950.000    -420.4473592    841.4816190    390.3305229    378.9601788
     960.000    -428.8826490    845.5693487    390.4184135    382.8639258
     970.000    -437.3586080    849.6156146    390.5036287    386.7685382
     980.000    -445.8748258    853.6212404    390.5862758    390.6739898
     990.000    -454.4309000    857.5870257    390.6664567    394.5802555
    1000.000    -463.0264361    861.5137471    390.7442682    398.4873110

Summary of calculation was written in "phonopy.yaml".
                 _
   ___ _ __   __| |
  / _ \ '_ \ / _` |
 |  __/ | | | (_| |
  \___|_| |_|\__,_|

