#      T [K]      F [kJ/mol]    S [J/K/mol]  C_v [J/K/mol]     E [kJ/mol]
       0.000      66.5278224      0.0000000      0.0000000     66.5278224
      10.000      66.5250857      0.8313149      1.6746432     66.5333989
      20.000      66.5055966      3.3619009      6.9238196     66.5728347
      30.000      66.4508835      7.9905166     17.7492976     66.6905990
      40.000      66.3365714     15.3666145     35.4978440     66.9512360
      50.000      66.1335630     25.7213599     58.9281143     67.4196310
      60.000      65.8130792     38.7871108     85.5223577     68.1403058
      70.000      65.3505503     54.0327788    112.9724843     69.1328449
      80.000      64.7271041     70.8765352    139.6868104     70.3972269
      90.000      63.9294480     88.7951012    164.7448963     71.9210071
     100.000      62.9490567    107.3605326    187.7085228     73.6851100
     110.000      61.7811956    126.2412823    208.4456411     75.6677366
     120.000      60.4240139    145.1894237    227.0023623     77.8467448
     130.000      58.8777896    164.0245356    243.5190396     80.2009793
     140.000      57.1443311    182.6185900    258.1785140     82.7109337
     150.000      55.2265190    200.8832691    271.1757474     85.3590094
     160.000      53.1279617    218.7598866    282.7009778     88.1295435
     170.000      50.8527393    236.2116153    292.9311324     91.0087139
     180.000      48.4052165    253.2175992    302.0261262     93.9843843
     190.000      45.7899051    269.7685408    310.1279484     97.0459278
     200.000      43.0113665    285.8634176    317.3612581    100.1840500
     210.000      40.0741413    301.5070499    323.8347267    103.3906218
     220.000      36.9827004    316.7083055    329.6426846    106.6585276
     230.000      33.7414113    331.4787796    334.8668244    109.9815306
     240.000      30.3545163    345.8318264    339.5778264    113.3541547
     250.000      26.8261183    359.7818528    343.8368455    116.7715815
     260.000      23.1601729    373.3438053    347.6968340    120.2295623
     270.000      19.3604853    386.5328015    351.2036998    123.7243417
     280.000      15.4307099    399.3638669    354.3973078    127.2525926
     290.000      11.3743519    411.8517514    357.3123409    130.8113598
     300.000       7.1947709    424.0108038    359.9790361    134.3980121
     310.000       2.8951856    435.8548888    362.4238125    138.0102012
     320.000      -1.5213214    447.3973359    364.6698059    141.6458260
     330.000      -6.0517982    458.6509117    366.7373235    145.3030026
     340.000     -10.6934175    469.6278084    368.6442323    148.9800374
     350.000     -15.4434709    480.3396445    370.4062882    152.6754046
     360.000     -20.2993637    490.7974740    372.0374186    156.3877269
     370.000     -25.2586088    501.0118018    373.5499621    160.1157579
     380.000     -30.3188214    510.9926024    374.9548754    163.8583675
     390.000     -35.4777140    520.7493417    376.2619089    167.6145292
     400.000     -40.7330913    530.2909997    377.4797588    171.3833085
     410.000     -46.0828455    539.6260943    378.6161975    175.1638531
     420.000     -51.5249517    548.7627049    379.6781863    178.9553844
     430.000     -57.0574636    557.7084958    380.6719723    182.7571896
     440.000     -62.6785098    566.4707388    381.6031733    186.5686153
     450.000     -68.3862896    575.0563354    382.4768501    190.3890614
     460.000     -74.1790696    583.4718378    383.2975712    194.2179758
     470.000     -80.0551801    591.7234685    384.0694672    198.0548501
     480.000     -86.0130124    599.8171403    384.7962802    201.8992149
     490.000     -92.0510152    607.7584733    385.4814056    205.7506368
     500.000     -98.1676919    615.5528127    386.1279295    209.6087144
     510.000    -104.3615984    623.2052441    386.7386615    213.4730761
     520.000    -110.6313400    630.7206093    387.3161636    217.3433769
     530.000    -116.9755691    638.1035198    387.8627750    221.2192964
     540.000    -123.3929835    645.3583705    388.3806356    225.1005366
     550.000    -129.8823237    652.4893518    388.8717048    228.9868198
     560.000    -136.4423710    659.5004614    389.3377800    232.8778874
     570.000    -143.0719461    666.3955152    389.7805120    236.7734976
     580.000    -149.7699066    673.1781577    390.2014186    240.6734249
     590.000    -156.5351461    679.8518713    390.6018977    244.5774579
     600.000    -163.3665921    686.4199852    390.9832380    248.4853990
     610.000    -170.2632045    692.8856841    391.3466291    252.3970628
     620.000    -177.2239745    699.2520161    391.6931705    256.3122755
     630.000    -184.2479233    705.5218997    392.0238794    260.2308735
     640.000    -191.3341004    711.6981309    392.3396980    264.1527034
     650.000    -198.4815827    717.7833899    392.6415000    268.0776207
     660.000    -205.6894735    723.7802468    392.9300966    272.0054894
     670.000    -212.9569012    729.6911677    393.2062415    275.9361812
     680.000    -220.2830183    735.5185197    393.4706356    279.8695751
     690.000    -227.6670006    741.2645761    393.7239319    283.8055569
     700.000    -235.1080461    746.9315213    393.9667386    287.7440187
     710.000    -242.6053743    752.5214548    394.1996232    291.6848586
     720.000    -250.1582253    758.0363961    394.4231158    295.6279799
     730.000    -257.7658588    763.4782877    394.6377115    299.5732913
     740.000    -265.4275538    768.8489997    394.8438735    303.5207060
     750.000    -273.1426075    774.1503328    395.0420355    307.4701421
     760.000    -280.9103349    779.3840215    395.2326037    311.4215214
     770.000    -288.7300680    784.5517378    395.4159591    315.3747701
     780.000    -296.6011552    789.6550935    395.5924591    319.3298178
     790.000    -304.5229606    794.6956432    395.7624396    323.2865976
     800.000    -312.4948637    799.6748870    395.9262161    327.2450459
     810.000    -320.5162588    804.5942728    396.0840853    331.2051022
     820.000    -328.5865543    809.4551989    396.2363265    335.1667088
     830.000    -336.7051724    814.2590159    396.3832029    339.1298108
     840.000    -344.8715486    819.0070291    396.5249624    343.0943558
     850.000    -353.0851312    823.7005000    396.6618389    347.0602938
     860.000    -361.3453809    828.3406487    396.7940532    351.0275771
     870.000    -369.6517703    832.9286556    396.9218135    354.9961600
     880.000    -378.0037840    837.4656626    397.0453171    358.9659991
     890.000    -386.4009173    841.9527754    397.1647500    362.9370528
     900.000    -394.8426767    846.3910643    397.2802885    366.9092812
     910.000    -403.3285793    850.7815664    397.3920994    370.8826461
     920.000    -411.8581521    855.1252863    397.5003408    374.8571113
     930.000    -420.4309323    859.4231977    397.6051624    378.8326416
     940.000    -429.0464665    863.6762448    397.7067062    382.8092036
     950.000    -437.7043107    867.8853431    397.8051071    386.7867652
     960.000    -446.4040299    872.0513808    397.9004928    390.7652957
     970.000    -455.1451977    876.1752197    397.9929849    394.7447654
     980.000    -463.9273964    880.2576964    398.0826989    398.7251461
     990.000    -472.7502165    884.2996232    398.1697446    402.7064105
    1000.000    -481.6132563    888.3017888    398.2542263    406.6885325

Summary of calculation was written in "phonopy.yaml".
                 _
   ___ _ __   __| |
  / _ \ '_ \ / _` |
 |  __/ | | | (_| |
  \___|_| |_|\__,_|

